# %ECSV 1.0
# ---
# datatype:
# - {name: wavelength, unit: nm, datatype: float64}
# - {name: efficiency, unit: '%', datatype: float64}
# meta: !!omap
# - {MODE: DETECTOR}
# - {TYPE: transmission_filter}
# - {CALIBDATE: '1970-01-01T00:00:00'}
# - {INSTRUME: ComCam}
# - {OBSTYPE: transmission_filter}
# - {CALIBCLS: lsst.ip.isr.IntermediateFilterTransmissionCurve}
# - {SOURCE: 'https://github.com/lsst/throughputs'}
# - {FILTER: y_04}
# - {VERSION: 1.9}
# - {CALIB_ID: 'calibDate=1970-01-01T00:00:00 filter=y_04'}
# - {DATE: '2024-08-19T19:49:53.694234'}
# - {CALIB_CREATION_DATE: '2024-08-19'}
# - {CALIB_CREATION_TIME: '19:49:53'}
# - __serialized_columns__:
#     efficiency:
#       __class__: astropy.units.quantity.Quantity
#       unit: !astropy.units.Unit {unit: '%'}
#       value: !astropy.table.SerializedColumn {name: efficiency}
#     wavelength:
#       __class__: astropy.units.quantity.Quantity
#       unit: !astropy.units.Unit {unit: nm}
#       value: !astropy.table.SerializedColumn {name: wavelength}
# schema: astropy-2.0
wavelength efficiency
888.5000000001338 0.09835037468110155
898.200000000136 0.118811206399677
901.0000000001367 0.14332466662309412
903.6000000001372 0.20203835763947225
905.6000000001377 0.2967314822109267
906.900000000138 0.40664667482356603
908.9000000001384 0.740247191971022
910.1000000001387 1.1446204410734158
911.0000000001389 1.5716291030425333
911.300000000139 1.7975878533140328
912.2000000001392 2.54801603886811
913.0000000001394 3.4407804450419
914.0000000001396 4.748494472280592
915.1000000001399 6.821067996245509
916.0000000001401 8.749723785982312
916.8000000001402 10.566092112749189
917.6000000001404 12.520052119503585
918.9000000001407 15.60518970192498
919.1000000001408 16.143299691740584
920.9000000001412 21.682847478912173
922.0000000001414 24.975064493521845
923.2000000001417 29.12040923060087
924.0000000001419 32.04146478096653
924.500000000142 34.04059676882352
925.0000000001421 36.039728756801594
925.6000000001422 38.94991140137442
925.9000000001423 40.405002723660836
927.0000000001426 46.19304582936073
927.2000000001426 47.15203611594607
927.5000000001427 48.590521545824075
927.6000000001427 49.07001668911675
927.7000000001427 49.54951183240942
928.0000000001428 50.98799726236744
928.6000000001429 54.20123744339366
928.800000000143 55.272317503735735
930.3000000001433 62.87989196330979
930.8000000001434 65.46616086132107
932.1000000001437 72.15299789359135
932.2000000001437 72.64069713849055
932.4000000001438 73.61609562828896
932.8000000001439 75.56689260788578
933.200000000144 77.35716596075251
934.1000000001442 80.95313242385106
935.0000000001444 83.98133551798895
935.5000000001445 85.4842676255472
936.0000000001446 86.98719973302397
936.7000000001448 88.69691473890592
937.0000000001448 89.42964974135144
937.700000000145 90.77541893861587
938.0000000001451 91.35217716593404
939.0000000001453 92.71722105968361
940.0000000001455 93.6671176432355
940.5000000001456 93.97748967991639
941.0000000001457 94.28786171657595
942.000000000146 94.7623157853494
942.5000000001461 94.869067950832
942.8000000001462 94.93311925012156
944.2000000001465 95.40223571064243
944.4000000001465 95.42240000856694
945.6000000001468 95.62522912300386
947.2000000001472 95.86463073856144
947.6000000001472 95.96782449852796
947.8000000001473 96.01942137851121
948.6000000001475 96.07813506949039
951.000000000148 96.32307198251517
951.2000000001481 96.32663038803126
951.4000000001481 96.33018879354735
953.7000000001486 96.5109755626892
955.300000000149 96.59687151808085
955.6000000001491 96.64728226289208
955.9000000001491 96.69769300770331
956.8000000001493 96.82045799800298
961.7000000001505 97.36163217023626
966.4000000001515 97.74406191861537
966.6000000001516 97.76066781102378
970.6000000001525 97.84033655673848
971.2000000001526 97.86998993604374
972.6000000001529 97.95262401969144
974.2000000001533 97.93325047853682
976.4000000001538 97.96152003346847
976.9000000001539 97.94125689094632
977.400000000154 97.95539166842624
977.6000000001541 97.9644853714118
977.9000000001541 97.97812592589014
980.4000000001547 97.89173574751119
980.8000000001548 97.86801304407061
981.0000000001548 97.85615169235629
983.5000000001554 97.86653037510816
985.0000000001558 97.85120946246249
985.2000000001558 97.83381281327274
985.5000000001559 97.80771783948812
986.5000000001561 97.79882182572226
986.8000000001562 97.81957919123276
988.6000000001566 97.7159900528651
989.9000000001569 97.69809918068344
990.600000000157 97.69602344413565
991.0000000001571 97.69602344414403
991.3000000001572 97.71203626896643
991.6000000001573 97.72804909378881
994.4000000001579 97.6853482275894
995.9000000001582 97.67526607862202
996.6000000001584 97.72903753977182
997.0000000001585 97.76620310848506
1001.5000000001595 97.86109392225494
1003.2000000001599 97.92850593786369
1003.80000000016 97.96764839854065
1005.5000000001604 97.99156879118101
1005.8000000001605 98.01944296772369
1008.100000000161 97.99364452770777
1008.6000000001611 97.96448537139538
1010.8000000001616 98.02912973828195
1011.3000000001617 98.0142042040232
1011.8000000001618 97.98603349368751
1015.1000000001626 97.93740195164379
1016.2000000001628 97.94590258704848
1016.700000000163 97.96270616865222
1018.5000000001634 97.95796162795347
1019.0000000001635 97.94214649233659
1021.300000000164 98.046822921249
1021.7000000001641 98.01242500126015
1023.1000000001644 97.98089357461166
1023.5000000001645 97.96586919576596
1024.0000000001646 97.94708872221747
1027.1000000001654 98.05799236079022
1027.4000000001654 98.0407934007958
1028.3000000001657 98.01944296771599
1030.000000000166 98.09140183480561
1030.3000000001662 98.08013355067133
1031.0000000001662 98.05384088769728
1032.7000000001667 98.03664192769956
1035.5000000001673 98.04939288079174
1035.8000000001673 98.03011818424629
1038.2000000001678 97.98761500725352
1038.900000000168 97.96339808082462
1042.300000000169 97.96636341874797
1042.6000000001688 97.94412338427244
1043.600000000169 97.93878577601768
1045.2000000001694 97.80554325837205
1045.4000000001695 97.82807982664059
1045.9000000001697 97.88442124731198
1046.0000000001696 97.89568953141841
1047.10000000017 97.8466626109873
1050.1000000001704 97.837766597187
1051.900000000171 97.7772737034142
1052.6000000001711 97.72132766112387
1052.900000000171 97.69493615354622
1055.0000000001717 97.97081142563016
1055.1000000001718 97.95598473597978
1055.4000000001718 97.91150466702871
1056.1000000001718 97.83084747537049
1056.600000000172 97.8723622063915
1056.800000000172 97.88896809879991
1058.3000000001725 97.75295793238654
1059.0000000001726 97.72666526942959
1059.3000000001725 97.75542904735129
1060.5000000001728 97.79140848087552
1061.200000000173 97.76126087859807
1062.2000000001733 97.75849322985665
1062.4000000001733 97.75177179721516
1063.5000000001737 97.79437381883815
1063.6000000001736 97.8069270827421
1063.8000000001737 97.83203361055006
1066.0000000001742 97.83341743491387
1066.3000000001744 97.86485001697265
1067.4000000001745 97.9120977346288
1067.6000000001745 97.89905024773648
1068.0000000001746 97.87295527393908
1069.0000000001749 97.73457283727048
1069.400000000175 97.83499894850225
1069.9000000001752 97.960531587542
1071.1000000001754 97.8794790174191
1072.1000000001754 97.94115804637569
1072.5000000001755 97.98860345325686
1072.7000000001758 98.01232615669745
1072.9000000001756 98.03604886013801
1074.100000000176 97.64156007083025
1074.200000000176 97.64739190209274
1074.500000000176 97.66488739588016
1074.900000000176 97.68821472093006
1076.1000000001764 97.50683488425564
1076.4000000001765 97.60647023870611
1076.7000000001767 97.70610559315658
1078.000000000177 97.95301939804352
1079.0000000001771 97.77411067637544
1079.5000000001774 98.00343014296773
1079.8000000001773 98.14102182292302
1079.9000000001774 98.18688571624152
1080.0000000001774 98.2327496093408
1081.1000000001777 97.4503946189184
1081.2000000001776 97.4449581660466
1081.8000000001778 97.41233944881581
1082.700000000178 97.49625851227061
1084.1000000001782 97.78943158891441
1085.4000000001786 97.66439317286742
1087.100000000179 97.54647156785477
1088.100000000179 97.49665389061646
1088.4000000001793 97.4619594368346
1088.7000000001794 97.42726498305274
1090.3000000001798 97.50910830993867
1090.9000000001797 97.49309548511629
1091.3000000001798 97.4414986051085
1091.70000000018 97.37626117064693
1091.9000000001802 97.3436424534161
1093.2000000001804 97.40423419178256
1093.4000000001804 97.36647555547296
1093.6000000001804 97.3287169191634
1094.9000000001806 97.18647954313829
1095.500000000181 97.21514447648877
1096.000000000181 97.25122275459968
1096.8000000001812 97.13972604842897
1098.0000000001814 96.64036314112148
1098.1000000001814 96.69067504133498
1098.3000000001816 96.79129884176221
1098.5000000001814 96.89192264218921
1099.0000000001817 97.14348214309652
1099.8000000001819 96.83904078227577
1099.900000000182 96.80098561217314
